# Sweep from 15803.199Hz to 15846.696Hz step 0.3624749999999949Hz delay 0.8s
# Excitation 0.000582Vpp attenuator 0 dB
# time(s), freq(Hz), absorption(nA), dispersion(nA)
45805.95 15803.199 0.64624135 -0.3094579
45806.77 15803.561 0.64557952 -0.30498677
45807.58 15803.924 0.65148129 -0.30732096
45808.40 15804.286 0.65530395 -0.30584675
45809.22 15804.649 0.64608668 -0.30990972
45810.03 15805.011 0.65232575 -0.31078824
45810.85 15805.374 0.64495862 -0.31197746
45811.67 15805.736 0.6532423 -0.31307275
45812.48 15806.099 0.64493355 -0.31509447
45813.30 15806.461 0.65700488 -0.31130361
45814.11 15806.824 0.64535885 -0.30766444
45814.93 15807.186 0.64593809 -0.31213605
45815.75 15807.549 0.65064006 -0.31263644
45816.56 15807.911 0.64917464 -0.30761348
45817.38 15808.274 0.65206001 -0.3132906
45818.20 15808.636 0.64992065 -0.3086524
45819.01 15808.999 0.65457795 -0.31181216
45819.83 15809.361 0.65252846 -0.31378013
45820.64 15809.724 0.65076557 -0.31264986
45821.46 15810.086 0.65408057 -0.31470381
45822.28 15810.449 0.64890867 -0.311023
45823.09 15810.811 0.64614471 -0.31062899
45823.91 15811.173 0.65050529 -0.31724096
45824.72 15811.536 0.64779113 -0.31472774
45825.54 15811.898 0.64864059 -0.31507611
45826.36 15812.261 0.64932846 -0.31470537
45827.17 15812.623 0.64886615 -0.31493579
45827.99 15812.986 0.65339037 -0.31735175
45828.81 15813.348 0.65047504 -0.31559853
45829.62 15813.711 0.65685913 -0.31467604
45830.44 15814.073 0.65449404 -0.31834358
45831.26 15814.436 0.65565166 -0.31733222
45832.07 15814.798 0.65289015 -0.31111199
45832.88 15815.161 0.65413388 -0.31490634
45833.70 15815.523 0.65937968 -0.32141591
45834.51 15815.886 0.65635993 -0.31562647
45835.33 15816.248 0.64984704 -0.31479559
45836.14 15816.611 0.65020026 -0.32104504
45836.96 15816.973 0.65310985 -0.31789287
45837.77 15817.336 0.65406437 -0.32386114
45838.59 15817.698 0.65642996 -0.32102574
45839.41 15818.060 0.66198493 -0.32175555
45840.22 15818.423 0.65754318 -0.31705429
45841.04 15818.785 0.65995016 -0.32796478
45841.86 15819.148 0.66357251 -0.31903429
45842.67 15819.510 0.66567276 -0.32509308
45843.49 15819.873 0.66886417 -0.32288051
45844.30 15820.235 0.66598528 -0.32643024
45845.12 15820.598 0.66453447 -0.32467761
45845.94 15820.960 0.66268223 -0.3205248
45846.75 15821.323 0.6704675 -0.32066416
45847.57 15821.685 0.67646477 -0.32246459
45848.39 15822.048 0.6776275 -0.3251109
45849.21 15822.410 0.67711977 -0.32278649
45850.03 15822.773 0.6834469 -0.31607595
45850.84 15823.135 0.67867336 -0.31784373
45851.66 15823.498 0.68780776 -0.31541157
45852.47 15823.860 0.68572467 -0.31207318
45853.29 15824.223 0.69055386 -0.30937306
45854.10 15824.585 0.68994575 -0.30309772
45854.92 15824.948 0.69347334 -0.29603407
45855.74 15825.310 0.69308817 -0.28826273
45856.56 15825.672 0.68131834 -0.29476621
45857.37 15826.035 0.68520171 -0.28092998
45858.19 15826.397 0.68044045 -0.28361751
45859.01 15826.760 0.6817653 -0.27774882
45859.83 15827.122 0.6769863 -0.28062121
45860.64 15827.485 0.67650808 -0.28239245
45861.46 15827.847 0.67546597 -0.28076093
45862.27 15828.210 0.67196356 -0.27985513
45863.09 15828.572 0.67071426 -0.27825939
45863.90 15828.935 0.66580407 -0.27611387
45864.72 15829.297 0.66811947 -0.27589192
45865.54 15829.660 0.66179268 -0.28346273
45866.35 15830.022 0.6653737 -0.27665624
45867.16 15830.385 0.66022278 -0.27854495
45867.98 15830.747 0.66215688 -0.27834486
45868.79 15831.110 0.66079241 -0.28189226
45869.61 15831.472 0.65728216 -0.27998973
45870.43 15831.835 0.65491491 -0.28631129
45871.24 15832.197 0.65832324 -0.28361976
45872.06 15832.559 0.65559033 -0.28296176
45872.88 15832.922 0.65528411 -0.28408161
45873.69 15833.284 0.65615797 -0.28472462
45874.50 15833.647 0.65844102 -0.28945121
45875.32 15834.009 0.65963587 -0.28193043
45876.14 15834.372 0.65369704 -0.28261755
45876.95 15834.734 0.6537125 -0.28069192
45877.77 15835.097 0.64888468 -0.28590475
45878.59 15835.459 0.65194598 -0.28569602
45879.41 15835.822 0.65500137 -0.28378545
45880.22 15836.184 0.64712839 -0.28325834
45881.04 15836.547 0.65039046 -0.28313033
45881.86 15836.909 0.65111379 -0.28076417
45882.67 15837.272 0.64788861 -0.2881219
45883.49 15837.634 0.65015553 -0.29160026
45884.31 15837.997 0.65130075 -0.28921085
45885.13 15838.359 0.6489966 -0.28879708
45885.95 15838.722 0.64938973 -0.28100243
45886.76 15839.084 0.64703227 -0.28811999
45887.57 15839.447 0.65274253 -0.29249728
45888.39 15839.809 0.64744813 -0.29521681
45889.20 15840.171 0.65587699 -0.29074775
45890.02 15840.534 0.64967605 -0.29208454
45890.83 15840.896 0.64878549 -0.29126682
45891.65 15841.259 0.64317948 -0.29349985
45892.46 15841.621 0.64865924 -0.28550917
45893.28 15841.984 0.64880322 -0.28962288
45894.10 15842.346 0.6505129 -0.28672792
45894.92 15842.709 0.65222872 -0.29324775
45895.73 15843.071 0.65345131 -0.28964033
45896.55 15843.434 0.64573169 -0.28656737
45897.36 15843.796 0.64562812 -0.29007518
45898.18 15844.159 0.64542354 -0.29345205
45899.00 15844.521 0.64962632 -0.29423373
45899.81 15844.884 0.6494526 -0.28775429
45900.63 15845.246 0.64612425 -0.29224782
45901.44 15845.609 0.64717045 -0.29243364
45902.26 15845.971 0.64574061 -0.28901619
45903.08 15846.334 0.65139494 -0.28628099
45903.89 15846.696 0.6445897 -0.29016761
