# Sweep from 15801.185Hz to 15848.924Hz step 0.39782500000001164Hz delay 0.8s
# Excitation 0.000713Vpp attenuator 0 dB
# time(s), freq(Hz), absorption(nA), dispersion(nA)
60338.17 15801.185 0.79751328 -0.3151242
60338.99 15801.583 0.7929367 -0.31306107
60339.81 15801.981 0.79192807 -0.31652627
60340.62 15802.378 0.79526507 -0.31418253
60341.44 15802.776 0.79471027 -0.31138217
60342.26 15803.174 0.79578979 -0.31031558
60343.07 15803.572 0.79336036 -0.31035944
60343.89 15803.970 0.79303436 -0.31483
60344.70 15804.368 0.79137021 -0.31304918
60345.52 15804.765 0.79192313 -0.31264847
60346.33 15805.163 0.79315231 -0.31429616
60347.15 15805.561 0.79498056 -0.31685511
60347.96 15805.959 0.7961653 -0.30626524
60348.78 15806.357 0.79335575 -0.31306465
60349.59 15806.755 0.79057571 -0.31651098
60350.41 15807.152 0.7945178 -0.31604688
60351.23 15807.550 0.79161634 -0.31743608
60352.04 15807.948 0.79419368 -0.31398645
60352.85 15808.346 0.79437967 -0.31732014
60353.67 15808.744 0.79240181 -0.31639729
60354.49 15809.141 0.79391532 -0.31803765
60355.30 15809.539 0.79812526 -0.32028427
60356.12 15809.937 0.79095042 -0.31803808
60356.93 15810.335 0.79521851 -0.32324533
60357.75 15810.733 0.79341885 -0.31959743
60358.57 15811.131 0.79504326 -0.31934317
60359.38 15811.528 0.80021914 -0.31818792
60360.20 15811.926 0.79496334 -0.32143316
60361.01 15812.324 0.80310599 -0.32296305
60361.83 15812.722 0.80020908 -0.32088116
60362.64 15813.120 0.79786719 -0.3185757
60363.46 15813.518 0.79441429 -0.32286715
60364.28 15813.915 0.80055599 -0.32409434
60365.10 15814.313 0.79739539 -0.3208676
60365.91 15814.711 0.7970537 -0.32288204
60366.73 15815.109 0.80203614 -0.32828154
60367.54 15815.507 0.80433961 -0.32586647
60368.36 15815.905 0.80047499 -0.32744103
60369.18 15816.302 0.8051482 -0.32646619
60369.99 15816.700 0.80033527 -0.32891066
60370.81 15817.098 0.80347553 -0.32520904
60371.62 15817.496 0.80538979 -0.32841524
60372.44 15817.894 0.80325191 -0.32620039
60373.25 15818.291 0.80279762 -0.33422569
60374.07 15818.689 0.80274788 -0.33150098
60374.89 15819.087 0.80909263 -0.32892905
60375.70 15819.485 0.81116667 -0.3307988
60376.52 15819.883 0.81491589 -0.33236901
60377.33 15820.281 0.81563394 -0.33873974
60378.15 15820.678 0.81430437 -0.3334539
60378.96 15821.076 0.82227689 -0.3320549
60379.78 15821.474 0.82141923 -0.32976664
60380.60 15821.872 0.82650257 -0.33419244
60381.41 15822.270 0.83085195 -0.33378308
60382.23 15822.668 0.83383378 -0.33170011
60383.04 15823.065 0.83317559 -0.32481077
60383.86 15823.463 0.84353974 -0.32631149
60384.68 15823.861 0.84227668 -0.32215621
60385.49 15824.259 0.85348529 -0.31629517
60386.31 15824.657 0.85266782 -0.30674215
60387.12 15825.055 0.85316645 -0.30357177
60387.94 15825.452 0.84719005 -0.29689238
60388.75 15825.850 0.8475011 -0.2935023
60389.57 15826.248 0.85323273 -0.29191617
60390.38 15826.646 0.84421492 -0.2859185
60391.20 15827.044 0.84303514 -0.27836296
60392.01 15827.441 0.8340831 -0.27806718
60392.83 15827.839 0.82961969 -0.2786216
60393.64 15828.237 0.8223825 -0.27626169
60394.46 15828.635 0.82589543 -0.27056788
60395.28 15829.033 0.81075774 -0.27372838
60396.10 15829.431 0.81578963 -0.27515375
60396.91 15829.828 0.81044357 -0.27261839
60397.73 15830.226 0.81146908 -0.27036475
60398.54 15830.624 0.81177586 -0.27638995
60399.36 15831.022 0.80940458 -0.27554202
60400.17 15831.420 0.80539286 -0.27703595
60400.99 15831.818 0.80725539 -0.27794525
60401.80 15832.215 0.80313987 -0.28369382
60402.62 15832.613 0.8071292 -0.28491701
60403.43 15833.011 0.80373343 -0.27972442
60404.25 15833.409 0.80285935 -0.28476859
60405.06 15833.807 0.80243467 -0.27981065
60405.88 15834.204 0.80032981 -0.2823183
60406.70 15834.602 0.80520414 -0.28163308
60407.52 15835.000 0.79963718 -0.2876813
60408.33 15835.398 0.79547294 -0.28260314
60409.15 15835.796 0.79828629 -0.28391176
60409.96 15836.194 0.79739061 -0.29005443
60410.78 15836.591 0.80004594 -0.28504149
60411.59 15836.989 0.79151499 -0.28071048
60412.41 15837.387 0.79572925 -0.28978599
60413.22 15837.785 0.79642791 -0.28097838
60414.04 15838.183 0.79584288 -0.28950276
60414.85 15838.581 0.79598567 -0.29220828
60415.67 15838.978 0.79339901 -0.29144638
60416.49 15839.376 0.79608043 -0.29003951
60417.30 15839.774 0.7945269 -0.28624243
60418.12 15840.172 0.79643507 -0.29050719
60418.93 15840.570 0.79292028 -0.28863636
60419.75 15840.968 0.79174254 -0.28642725
60420.57 15841.365 0.78911074 -0.28829524
60421.38 15841.763 0.79159094 -0.2908472
60422.20 15842.161 0.79108361 -0.28892487
60423.02 15842.559 0.78646781 -0.29197329
60423.83 15842.957 0.79254488 -0.29435782
60424.64 15843.354 0.79567349 -0.28903776
60425.46 15843.752 0.7901254 -0.29254824
60426.27 15844.150 0.79194228 -0.29699638
60427.09 15844.548 0.79609964 -0.29257305
60427.91 15844.946 0.79172708 -0.29104774
60428.72 15845.344 0.79457237 -0.28733072
60429.53 15845.741 0.79352571 -0.29610663
60430.35 15846.139 0.78593212 -0.29418348
60431.17 15846.537 0.78997175 -0.30012811
60431.98 15846.935 0.79691074 -0.29070245
60432.79 15847.333 0.79413826 -0.2901796
60433.61 15847.731 0.79823423 -0.29309075
60434.43 15848.128 0.79042707 -0.2927973
60435.24 15848.526 0.79577342 -0.29786639
60436.06 15848.924 0.80013888 -0.29253263
