# Sweep from 15814.354Hz to 15839.232Hz step 0.20731666666667176Hz delay 0.9s
# Excitation 0.000500Vpp attenuator 0 dB
# time(s), freq(Hz), absorption(nA), dispersion(nA)
5062.51 15814.354 0.55596706 -0.30980385
5063.42 15814.561 0.55452603 -0.30828082
5064.34 15814.769 0.55677202 -0.31569991
5065.26 15814.976 0.55568592 -0.30944611
5066.17 15815.183 0.55740202 -0.30886844
5067.09 15815.391 0.55966768 -0.31324012
5068.00 15815.598 0.56062532 -0.31023154
5068.92 15815.805 0.55664191 -0.31262144
5069.84 15816.013 0.55845135 -0.31512894
5070.76 15816.220 0.55784733 -0.3158554
5071.67 15816.427 0.55716566 -0.31722357
5072.59 15816.634 0.55640487 -0.31817387
5073.50 15816.842 0.5600358 -0.3124841
5074.42 15817.049 0.55736052 -0.31449568
5075.34 15817.256 0.55842219 -0.31727407
5076.25 15817.464 0.56080989 -0.31513602
5077.17 15817.671 0.56328639 -0.31948582
5078.08 15817.878 0.55948215 -0.3152511
5078.99 15818.086 0.56381174 -0.31703121
5079.91 15818.293 0.56069183 -0.31734535
5080.82 15818.500 0.55837342 -0.31086071
5081.74 15818.708 0.56242692 -0.31302832
5082.66 15818.915 0.56153152 -0.31558866
5083.58 15819.122 0.57111868 -0.32058341
5084.49 15819.330 0.56642062 -0.31444921
5085.40 15819.537 0.56031865 -0.32395607
5086.32 15819.744 0.56309034 -0.31688151
5087.24 15819.952 0.56198729 -0.32586712
5088.16 15820.159 0.56044865 -0.31694793
5089.07 15820.366 0.56695632 -0.32016516
5089.99 15820.573 0.56273433 -0.31830373
5090.91 15820.781 0.56258818 -0.32583696
5091.82 15820.988 0.56853003 -0.32592192
5092.74 15821.195 0.56238474 -0.32482376
5093.66 15821.403 0.56436983 -0.33215875
5094.58 15821.610 0.571719 -0.31942847
5095.49 15821.817 0.57155432 -0.32383809
5096.40 15822.025 0.5695527 -0.32499253
5097.32 15822.232 0.56891861 -0.32957578
5098.24 15822.439 0.57101903 -0.3277456
5099.16 15822.647 0.57498301 -0.33295501
5100.07 15822.854 0.57607855 -0.33035397
5100.99 15823.061 0.57874939 -0.33195292
5101.90 15823.269 0.57664687 -0.3326511
5102.82 15823.476 0.58643542 -0.33156965
5103.74 15823.683 0.58043304 -0.33593312
5104.65 15823.891 0.58310911 -0.33502207
5105.56 15824.098 0.59129565 -0.33271724
5106.48 15824.305 0.59372849 -0.33722213
5107.39 15824.513 0.5904019 -0.33501158
5108.31 15824.720 0.59378647 -0.33319589
5109.22 15824.927 0.59967817 -0.33432505
5110.14 15825.134 0.60984729 -0.33237981
5111.05 15825.342 0.61002328 -0.33091482
5111.97 15825.549 0.61286005 -0.33426224
5112.88 15825.756 0.61072791 -0.3260939
5113.79 15825.964 0.62004034 -0.32148512
5114.71 15826.171 0.62200701 -0.317869
5115.63 15826.378 0.62310875 -0.30754771
5116.54 15826.586 0.62890348 -0.30736854
5117.46 15826.793 0.62706494 -0.30139338
5118.38 15827.000 0.63335244 -0.29481299
5119.29 15827.208 0.62774552 -0.28802697
5120.21 15827.415 0.62480245 -0.27760493
5121.13 15827.622 0.62044194 -0.27715151
5122.04 15827.830 0.61201013 -0.27265617
5122.96 15828.037 0.61694976 -0.26325074
5123.88 15828.244 0.61091032 -0.26842352
5124.80 15828.452 0.6016208 -0.26687067
5125.71 15828.659 0.59791319 -0.2589025
5126.63 15828.866 0.58842096 -0.26758644
5127.55 15829.073 0.58834064 -0.26168311
5128.46 15829.281 0.58628103 -0.26925258
5129.38 15829.488 0.58424797 -0.26264055
5130.29 15829.695 0.579291 -0.26668701
5131.21 15829.903 0.57865833 -0.26295095
5132.13 15830.110 0.57729488 -0.2694666
5133.05 15830.317 0.57518014 -0.26920782
5133.96 15830.525 0.57528649 -0.26433796
5134.88 15830.732 0.57066751 -0.26706851
5135.80 15830.939 0.56752475 -0.27342389
5136.71 15831.147 0.56674952 -0.27193914
5137.63 15831.354 0.56708893 -0.272585
5138.54 15831.561 0.56406475 -0.27468951
5139.46 15831.769 0.56536692 -0.26949419
5140.37 15831.976 0.5588214 -0.27528907
5141.29 15832.183 0.56201071 -0.27546082
5142.21 15832.391 0.56541057 -0.27333826
5143.12 15832.598 0.56492735 -0.27747606
5144.04 15832.805 0.56341025 -0.27640084
5144.95 15833.013 0.56160451 -0.27484751
5145.87 15833.220 0.56182512 -0.27275502
5146.79 15833.427 0.56068131 -0.27595902
5147.70 15833.634 0.55875626 -0.27698141
5148.62 15833.842 0.56090323 -0.27659516
5149.54 15834.049 0.55843265 -0.2735454
5150.45 15834.256 0.56578835 -0.28125879
5151.36 15834.464 0.55874375 -0.27932171
5152.28 15834.671 0.56180778 -0.28415712
5153.19 15834.878 0.55733216 -0.28167128
5154.11 15835.086 0.55892633 -0.27555106
5155.02 15835.293 0.56173542 -0.27909547
5155.94 15835.500 0.5567947 -0.27918327
5156.85 15835.708 0.56357493 -0.28331985
5157.77 15835.915 0.56028352 -0.28455491
5158.69 15836.122 0.55626117 -0.27715774
5159.60 15836.330 0.56110628 -0.28669919
5160.52 15836.537 0.55644495 -0.2865512
5161.44 15836.744 0.56107609 -0.28423122
5162.36 15836.952 0.55834329 -0.28366176
5163.27 15837.159 0.55155658 -0.287201
5164.19 15837.366 0.5588675 -0.28136236
5165.10 15837.573 0.55315303 -0.28674847
5166.02 15837.781 0.55700787 -0.28682626
5166.94 15837.988 0.56074674 -0.28224076
5167.86 15838.195 0.5580701 -0.28248891
5168.78 15838.403 0.55671586 -0.28804399
5169.69 15838.610 0.55611258 -0.28270699
5170.61 15838.817 0.55912903 -0.28820568
5171.52 15839.025 0.55766446 -0.28591762
5172.44 15839.232 0.55365439 -0.28563483
