# Sweep from 15801.185Hz to 15848.924Hz step 0.39782500000001164Hz delay 0.8s
# Excitation 0.000713Vpp attenuator 0 dB
# time(s), freq(Hz), absorption(nA), dispersion(nA)
59942.94 15801.185 0.78999483 -0.31263053
59943.76 15801.583 0.78496578 -0.31709388
59944.58 15801.981 0.79531986 -0.31327102
59945.39 15802.378 0.7907243 -0.31476401
59946.21 15802.776 0.79028604 -0.30750147
59947.02 15803.174 0.79644366 -0.31211366
59947.84 15803.572 0.79220655 -0.31402007
59948.65 15803.970 0.79620628 -0.31398696
59949.47 15804.368 0.79773423 -0.31870761
59950.28 15804.765 0.79424615 -0.31064994
59951.10 15805.163 0.79634623 -0.31424838
59951.92 15805.561 0.78864946 -0.31622616
59952.73 15805.959 0.78766772 -0.31563673
59953.55 15806.357 0.78957311 -0.31741448
59954.36 15806.755 0.79057736 -0.31548083
59955.18 15807.152 0.79132337 -0.318513
59956.00 15807.550 0.79502041 -0.31131438
59956.81 15807.948 0.79116558 -0.30992408
59957.63 15808.346 0.78584429 -0.31823896
59958.44 15808.744 0.79630973 -0.32461304
59959.26 15809.141 0.7995227 -0.31454201
59960.08 15809.539 0.79229545 -0.32072751
59960.89 15809.937 0.79520919 -0.31201944
59961.71 15810.335 0.78880635 -0.31619709
59962.52 15810.733 0.79334507 -0.31914828
59963.34 15811.131 0.79572504 -0.31703109
59964.15 15811.528 0.79768893 -0.32157882
59964.97 15811.926 0.79740272 -0.31559847
59965.78 15812.324 0.79913582 -0.32077097
59966.60 15812.722 0.79946227 -0.31938555
59967.42 15813.120 0.79816681 -0.32095241
59968.24 15813.518 0.79936382 -0.33167441
59969.06 15813.915 0.79854453 -0.31972064
59969.87 15814.313 0.80244615 -0.3235042
59970.69 15814.711 0.7988275 -0.32545509
59971.50 15815.109 0.79602393 -0.32099328
59972.32 15815.507 0.80052195 -0.32693151
59973.13 15815.905 0.809509 -0.32299388
59973.95 15816.302 0.80103126 -0.3289509
59974.76 15816.700 0.80166848 -0.3262698
59975.58 15817.098 0.80888634 -0.32305354
59976.39 15817.496 0.8072542 -0.32873149
59977.21 15817.894 0.80630025 -0.33134188
59978.02 15818.291 0.80296991 -0.32861197
59978.84 15818.689 0.81060796 -0.32585203
59979.65 15819.087 0.81423099 -0.33194351
59980.47 15819.485 0.8098549 -0.32414778
59981.29 15819.883 0.81346724 -0.33413315
59982.10 15820.281 0.81074393 -0.33276342
59982.92 15820.678 0.8177027 -0.3369307
59983.74 15821.076 0.81261487 -0.3342688
59984.55 15821.474 0.82070528 -0.33165094
59985.36 15821.872 0.82527703 -0.3280436
59986.18 15822.270 0.83114543 -0.32643666
59987.00 15822.668 0.83260124 -0.32573854
59987.82 15823.065 0.83616823 -0.32431916
59988.63 15823.463 0.83757647 -0.31959758
59989.45 15823.861 0.84699576 -0.31848822
59990.26 15824.259 0.84384135 -0.31514887
59991.08 15824.657 0.85256733 -0.31187349
59991.89 15825.055 0.85147923 -0.31083005
59992.70 15825.452 0.84913648 -0.30384572
59993.52 15825.850 0.84608371 -0.29023312
59994.34 15826.248 0.84269112 -0.29647288
59995.15 15826.646 0.83576055 -0.27921897
59995.97 15827.044 0.83755572 -0.28012099
59996.78 15827.441 0.83669124 -0.28121727
59997.60 15827.839 0.83482468 -0.27522285
59998.42 15828.237 0.82403449 -0.27034193
59999.23 15828.635 0.81900077 -0.26902703
60000.05 15829.033 0.82093288 -0.27512104
60000.86 15829.431 0.82180878 -0.27045124
60001.68 15829.828 0.82103236 -0.27581459
60002.50 15830.226 0.80737095 -0.27212693
60003.31 15830.624 0.80892534 -0.27731537
60004.13 15831.022 0.80755325 -0.27831052
60004.95 15831.420 0.80901799 -0.27450827
60005.76 15831.818 0.80062142 -0.28417213
60006.58 15832.215 0.80545442 -0.27916175
60007.39 15832.613 0.80357893 -0.27867159
60008.20 15833.011 0.79676761 -0.27836464
60009.02 15833.409 0.80400042 -0.28185593
60009.83 15833.807 0.79758604 -0.27874489
60010.65 15834.204 0.80102512 -0.2816779
60011.47 15834.602 0.79703142 -0.28461685
60012.28 15835.000 0.79771797 -0.2799776
60013.10 15835.398 0.79962319 -0.2821574
60013.91 15835.796 0.80014325 -0.28712384
60014.73 15836.194 0.7949194 -0.29016616
60015.55 15836.591 0.79405538 -0.28861459
60016.36 15836.989 0.79115927 -0.28917378
60017.18 15837.387 0.79273104 -0.28804681
60017.99 15837.785 0.79351724 -0.28878506
60018.81 15838.183 0.79441867 -0.28135383
60019.62 15838.581 0.79658446 -0.29234388
60020.44 15838.978 0.79480071 -0.29066715
60021.26 15839.376 0.79680717 -0.29159327
60022.07 15839.774 0.8031318 -0.28660045
60022.88 15840.172 0.79312611 -0.28948932
60023.70 15840.570 0.79269768 -0.29006213
60024.52 15840.968 0.79441133 -0.29197022
60025.34 15841.365 0.79409256 -0.29367018
60026.15 15841.763 0.78990354 -0.28403613
60026.97 15842.161 0.79322615 -0.29216494
60027.78 15842.559 0.79061425 -0.28782134
60028.59 15842.957 0.79182524 -0.29278871
60029.41 15843.354 0.79787765 -0.29280184
60030.22 15843.752 0.79732183 -0.29056585
60031.04 15844.150 0.7911371 -0.29257671
60031.85 15844.548 0.78944396 -0.28897333
60032.67 15844.946 0.78959414 -0.29836221
60033.49 15845.344 0.79027228 -0.29082364
60034.31 15845.741 0.79294699 -0.28562215
60035.13 15846.139 0.79262952 -0.2920934
60035.94 15846.537 0.7930451 -0.29536594
60036.76 15846.935 0.79352918 -0.29162638
60037.58 15847.333 0.79557401 -0.29537441
60038.39 15847.731 0.79712129 -0.29178139
60039.21 15848.128 0.79129791 -0.28888104
60040.03 15848.526 0.78683399 -0.2910883
60040.84 15848.924 0.79362093 -0.2886832
