# Sweep from 15803.814Hz to 15846.837Hz step 0.3585249999999936Hz delay 0.8s
# Excitation 0.001312Vpp attenuator 0 dB
# time(s), freq(Hz), absorption(nA), dispersion(nA)
67453.23 15803.814 1.4606376 -0.33707278
67454.05 15804.173 1.4603768 -0.33639071
67454.86 15804.531 1.4615108 -0.34062643
67455.68 15804.890 1.4635663 -0.33891141
67456.50 15805.248 1.4679405 -0.34087773
67457.31 15805.607 1.4651598 -0.34211337
67458.13 15805.965 1.4610943 -0.34660135
67458.95 15806.324 1.46482 -0.34431429
67459.76 15806.682 1.4601087 -0.3440623
67460.58 15807.041 1.4601953 -0.34096695
67461.39 15807.399 1.4618571 -0.34221046
67462.21 15807.758 1.4686188 -0.34608468
67463.03 15808.116 1.4661246 -0.34670185
67463.84 15808.475 1.466266 -0.34353513
67464.66 15808.833 1.4617261 -0.34497916
67465.48 15809.192 1.4631923 -0.34225479
67466.29 15809.550 1.4641249 -0.34139205
67467.10 15809.909 1.4659454 -0.34410596
67467.92 15810.267 1.4629367 -0.34668327
67468.74 15810.626 1.4605392 -0.3520619
67469.55 15810.985 1.4636091 -0.34694884
67470.37 15811.343 1.4675541 -0.3548588
67471.18 15811.702 1.4686104 -0.35183575
67472.00 15812.060 1.4664733 -0.34795551
67472.81 15812.419 1.4639947 -0.3469093
67473.63 15812.777 1.4704502 -0.34678041
67474.45 15813.136 1.4686869 -0.35209777
67475.26 15813.494 1.4665266 -0.35578984
67476.08 15813.853 1.470489 -0.35266569
67476.90 15814.211 1.4669876 -0.35583051
67477.71 15814.570 1.4713858 -0.35384721
67478.53 15814.928 1.4678898 -0.3613705
67479.34 15815.287 1.4730371 -0.35295784
67480.15 15815.645 1.4662638 -0.3546989
67480.97 15816.004 1.4704865 -0.3635439
67481.78 15816.362 1.4775565 -0.35929534
67482.60 15816.721 1.4827269 -0.35781986
67483.41 15817.079 1.4803632 -0.36085027
67484.23 15817.438 1.477917 -0.35871966
67485.04 15817.796 1.4792806 -0.36228741
67485.86 15818.155 1.4839906 -0.36601557
67486.67 15818.514 1.486247 -0.37578724
67487.49 15818.872 1.4907918 -0.36570424
67488.30 15819.231 1.4879259 -0.37017691
67489.12 15819.589 1.4890815 -0.36625153
67489.93 15819.948 1.4983667 -0.36769356
67490.75 15820.306 1.4953937 -0.36771985
67491.56 15820.665 1.5038227 -0.37138935
67492.38 15821.023 1.5088199 -0.3758058
67493.19 15821.382 1.5129883 -0.37279509
67494.01 15821.740 1.5182599 -0.37456468
67494.82 15822.099 1.5236556 -0.37176719
67495.64 15822.457 1.5273532 -0.37222213
67496.46 15822.816 1.530649 -0.37221736
67497.27 15823.174 1.546782 -0.36846728
67498.09 15823.533 1.5461217 -0.36742648
67498.90 15823.891 1.5544634 -0.35862678
67499.72 15824.250 1.5660225 -0.35225153
67500.53 15824.608 1.5664957 -0.34413117
67501.35 15824.967 1.5709353 -0.3306171
67502.17 15825.325 1.5748828 -0.32322106
67502.98 15825.684 1.5705029 -0.3077536
67503.80 15826.043 1.5760882 -0.30109487
67504.61 15826.401 1.56768 -0.28500946
67505.43 15826.760 1.5572258 -0.27367599
67506.25 15827.118 1.5537814 -0.27736951
67507.07 15827.477 1.5495107 -0.26864191
67507.88 15827.835 1.542258 -0.26234198
67508.70 15828.194 1.5259951 -0.26213206
67509.52 15828.552 1.5204998 -0.26567571
67510.34 15828.911 1.5143348 -0.26526627
67511.15 15829.269 1.5108025 -0.26569322
67511.96 15829.628 1.5065292 -0.26554343
67512.78 15829.986 1.5001095 -0.26634893
67513.59 15830.345 1.5020075 -0.26477241
67514.41 15830.703 1.4960594 -0.26997085
67515.23 15831.062 1.4949719 -0.27181534
67516.05 15831.420 1.4910341 -0.26504259
67516.86 15831.779 1.4830675 -0.2714194
67517.67 15832.137 1.4840144 -0.27383425
67518.49 15832.496 1.480896 -0.27710848
67519.31 15832.855 1.4788953 -0.27461277
67520.12 15833.213 1.4760574 -0.2736956
67520.94 15833.572 1.4758053 -0.27525221
67521.75 15833.930 1.4749583 -0.27836509
67522.57 15834.289 1.4715054 -0.28232424
67523.39 15834.647 1.4699624 -0.28508401
67524.21 15835.006 1.4683063 -0.28433882
67525.02 15835.364 1.4687791 -0.28290987
67525.84 15835.723 1.4683858 -0.28471501
67526.66 15836.081 1.4781644 -0.29024648
67527.47 15836.440 1.4717477 -0.28390323
67528.29 15836.798 1.4683096 -0.28493884
67529.11 15837.157 1.4618199 -0.28844011
67529.93 15837.515 1.4689584 -0.28695607
67530.75 15837.874 1.4686617 -0.29079797
67531.56 15838.232 1.4662769 -0.29297928
67532.37 15838.591 1.4634599 -0.28783191
67533.19 15838.949 1.4692741 -0.29358853
67534.01 15839.308 1.4664466 -0.29325699
67534.82 15839.666 1.4614791 -0.28267237
67535.63 15840.025 1.4616436 -0.28935986
67536.45 15840.384 1.4612689 -0.29163542
67537.26 15840.742 1.4651 -0.29698734
67538.08 15841.101 1.4647043 -0.29331784
67538.90 15841.459 1.4613089 -0.29459261
67539.72 15841.818 1.4685196 -0.28948207
67540.53 15842.176 1.4596205 -0.29355309
67541.35 15842.535 1.4621963 -0.29401738
67542.16 15842.893 1.4636414 -0.29487822
67542.98 15843.252 1.4614997 -0.2960326
67543.79 15843.610 1.4623611 -0.30089552
67544.61 15843.969 1.464399 -0.30315269
67545.43 15844.327 1.4620965 -0.29790232
67546.26 15844.686 1.4639286 -0.29753622
67547.08 15845.044 1.4604882 -0.29588483
67547.89 15845.403 1.4570254 -0.29622396
67548.71 15845.761 1.451182 -0.30107003
67549.52 15846.120 1.4620282 -0.29625696
67550.34 15846.478 1.459602 -0.29918431
67551.16 15846.837 1.4570413 -0.30422797
