# Sweep from 15803.484Hz to 15847.193Hz step 0.3642416666666577Hz delay 0.8s
# Excitation 0.001452Vpp attenuator 0 dB
# time(s), freq(Hz), absorption(nA), dispersion(nA)
68441.41 15803.484 1.6128616 -0.35033904
68442.22 15803.848 1.6185231 -0.34724002
68443.04 15804.212 1.615742 -0.34290579
68443.86 15804.577 1.6164712 -0.34755362
68444.67 15804.941 1.6129341 -0.34636767
68445.49 15805.305 1.6209746 -0.3502972
68446.30 15805.669 1.6160966 -0.34680636
68447.11 15806.034 1.6175971 -0.34327007
68447.93 15806.398 1.6243182 -0.34993025
68448.74 15806.762 1.6211148 -0.35049709
68449.56 15807.126 1.6185634 -0.34980187
68450.38 15807.491 1.612558 -0.34932847
68451.19 15807.855 1.6219558 -0.34960078
68452.01 15808.219 1.6152489 -0.34988284
68452.82 15808.583 1.6199452 -0.34708663
68453.64 15808.948 1.6190191 -0.35270651
68454.45 15809.312 1.615704 -0.36216449
68455.27 15809.676 1.6196439 -0.35342563
68456.09 15810.040 1.619163 -0.35024664
68456.91 15810.405 1.626691 -0.35010015
68457.72 15810.769 1.6207443 -0.35268542
68458.54 15811.133 1.6225982 -0.35116616
68459.35 15811.497 1.6202011 -0.36031227
68460.17 15811.862 1.6173452 -0.35461608
68460.99 15812.226 1.6192563 -0.3535738
68461.80 15812.590 1.630954 -0.35543411
68462.62 15812.954 1.6285063 -0.36018426
68463.43 15813.319 1.6306794 -0.36731822
68464.25 15813.683 1.6251603 -0.35945067
68465.06 15814.047 1.6224209 -0.35790515
68465.87 15814.411 1.6259664 -0.36592792
68466.69 15814.775 1.6260055 -0.35979446
68467.51 15815.140 1.6344085 -0.36562872
68468.32 15815.504 1.6311368 -0.36313173
68469.14 15815.868 1.6282171 -0.36859277
68469.95 15816.232 1.6314374 -0.36805233
68470.77 15816.597 1.6281033 -0.37139006
68471.59 15816.961 1.6352587 -0.3673814
68472.40 15817.325 1.6344143 -0.3728847
68473.22 15817.689 1.6397852 -0.3726073
68474.04 15818.054 1.6463132 -0.37788917
68474.86 15818.418 1.6398141 -0.3755874
68475.67 15818.782 1.6466651 -0.3688975
68476.49 15819.146 1.646251 -0.3798657
68477.31 15819.511 1.6488258 -0.3808405
68478.12 15819.875 1.6464293 -0.37986061
68478.94 15820.239 1.6602235 -0.38024297
68479.76 15820.603 1.6577592 -0.38742328
68480.57 15820.968 1.6663428 -0.3870116
68481.39 15821.332 1.6685793 -0.38541302
68482.20 15821.696 1.6767628 -0.38685315
68483.02 15822.060 1.6805678 -0.38254322
68483.83 15822.425 1.6929575 -0.38274652
68484.65 15822.789 1.6988839 -0.38134672
68485.47 15823.153 1.707442 -0.38203842
68486.28 15823.517 1.7164226 -0.37467629
68487.10 15823.882 1.7228912 -0.36371023
68487.92 15824.246 1.7282238 -0.3576975
68488.73 15824.610 1.7398299 -0.3500528
68489.55 15824.974 1.7460218 -0.3381262
68490.37 15825.338 1.7498556 -0.32468498
68491.18 15825.703 1.7455557 -0.30506703
68492.00 15826.067 1.7323825 -0.29940961
68492.81 15826.431 1.7387994 -0.28935
68493.63 15826.795 1.7234959 -0.2783658
68494.44 15827.160 1.7236346 -0.2690611
68495.26 15827.524 1.7078298 -0.26570868
68496.07 15827.888 1.7010733 -0.26287753
68496.89 15828.252 1.6880795 -0.25508467
68497.71 15828.617 1.6873447 -0.25655643
68498.52 15828.981 1.6698926 -0.25972818
68499.34 15829.345 1.666996 -0.25935714
68500.16 15829.709 1.6693447 -0.26307393
68500.97 15830.074 1.6643319 -0.26241648
68501.79 15830.438 1.6548153 -0.2630307
68502.60 15830.802 1.644309 -0.26026638
68503.42 15831.166 1.6517523 -0.26770002
68504.23 15831.531 1.6482351 -0.26679641
68505.04 15831.895 1.6389904 -0.26896956
68505.86 15832.259 1.6376663 -0.26912903
68506.68 15832.623 1.6383703 -0.27304569
68507.49 15832.988 1.6366638 -0.27376532
68508.31 15833.352 1.6350723 -0.27659422
68509.12 15833.716 1.6321593 -0.277883
68509.94 15834.080 1.6285652 -0.27502651
68510.75 15834.445 1.6292648 -0.27963893
68511.57 15834.809 1.6319217 -0.28632883
68512.39 15835.173 1.6211042 -0.28268579
68513.20 15835.537 1.6220631 -0.28361171
68514.02 15835.902 1.6251504 -0.28415701
68514.83 15836.266 1.6242386 -0.28497675
68515.65 15836.630 1.6175693 -0.28610833
68516.46 15836.994 1.6248429 -0.28375172
68517.28 15837.358 1.6218142 -0.29326753
68518.10 15837.723 1.6183568 -0.28741727
68518.91 15838.087 1.6169477 -0.28505463
68519.73 15838.451 1.6217209 -0.29532987
68520.54 15838.815 1.6205212 -0.29027314
68521.36 15839.180 1.6141731 -0.29107724
68522.17 15839.544 1.617345 -0.28928199
68522.99 15839.908 1.6205772 -0.2964413
68523.81 15840.272 1.6171788 -0.28973162
68524.63 15840.637 1.6122791 -0.29618482
68525.44 15841.001 1.614093 -0.29074914
68526.25 15841.365 1.615441 -0.29227721
68527.07 15841.729 1.6189858 -0.29471377
68527.89 15842.094 1.6147457 -0.29522789
68528.70 15842.458 1.6164753 -0.29803496
68529.51 15842.822 1.610709 -0.29894807
68530.33 15843.186 1.6114683 -0.29382147
68531.14 15843.551 1.6204946 -0.29432755
68531.96 15843.915 1.6167681 -0.30187562
68532.78 15844.279 1.6229219 -0.30247844
68533.59 15844.643 1.6144617 -0.3020613
68534.41 15845.008 1.6194242 -0.30037262
68535.22 15845.372 1.6173788 -0.2940198
68536.04 15845.736 1.6158353 -0.29703779
68536.85 15846.100 1.6133291 -0.30436303
68537.67 15846.465 1.611839 -0.29654694
68538.49 15846.829 1.6154435 -0.30051669
68539.30 15847.193 1.6159539 -0.30189753
