# Sweep from 15803.490Hz to 15846.869Hz step 0.3614916666666735Hz delay 0.8s
# Excitation 0.001071Vpp attenuator 0 dB
# time(s), freq(Hz), absorption(nA), dispersion(nA)
64883.75 15803.490 1.1915984 -0.32671261
64884.57 15803.851 1.195756 -0.33151775
64885.38 15804.213 1.1926098 -0.32868869
64886.20 15804.574 1.1960778 -0.32716304
64887.02 15804.936 1.1940886 -0.32886828
64887.83 15805.297 1.1975422 -0.33021456
64888.65 15805.659 1.1964779 -0.3281757
64889.47 15806.020 1.1889779 -0.32993236
64890.29 15806.382 1.1935856 -0.3359483
64891.10 15806.743 1.1964179 -0.33567798
64891.92 15807.105 1.1954686 -0.33524086
64892.73 15807.466 1.1948018 -0.33223807
64893.55 15807.828 1.1937395 -0.33100335
64894.36 15808.189 1.2008157 -0.33265525
64895.18 15808.551 1.1924784 -0.33651693
64896.00 15808.912 1.1939013 -0.33343176
64896.81 15809.274 1.1993143 -0.33260693
64897.63 15809.635 1.1967975 -0.33852029
64898.44 15809.997 1.1933897 -0.33993865
64899.26 15810.358 1.1974131 -0.33159372
64900.07 15810.720 1.1891535 -0.33608637
64900.89 15811.081 1.2001643 -0.33855181
64901.71 15811.443 1.1970653 -0.33785622
64902.52 15811.804 1.1971673 -0.3394031
64903.34 15812.166 1.1956024 -0.34024606
64904.15 15812.527 1.1979229 -0.33511057
64904.97 15812.889 1.2051153 -0.33716586
64905.79 15813.250 1.199659 -0.34041256
64906.60 15813.612 1.1984885 -0.33881213
64907.42 15813.973 1.1977668 -0.34188366
64908.23 15814.335 1.20077 -0.34025572
64909.05 15814.696 1.2027914 -0.33971702
64909.86 15815.058 1.2010428 -0.33940356
64910.68 15815.419 1.2039679 -0.3427065
64911.50 15815.781 1.2060096 -0.3492928
64912.32 15816.142 1.2021452 -0.34407208
64913.13 15816.504 1.2044798 -0.34054642
64913.95 15816.865 1.2104452 -0.34621985
64914.76 15817.227 1.2106819 -0.3465307
64915.58 15817.588 1.2106946 -0.3479426
64916.40 15817.950 1.2090318 -0.35229911
64917.22 15818.311 1.2143339 -0.34819678
64918.03 15818.673 1.2134874 -0.34586958
64918.85 15819.034 1.2190859 -0.35684491
64919.67 15819.396 1.2199935 -0.35826525
64920.49 15819.757 1.2272417 -0.3573499
64921.31 15820.119 1.2267329 -0.35849959
64922.12 15820.480 1.228429 -0.3566627
64922.94 15820.842 1.2291857 -0.35532392
64923.75 15821.203 1.2316701 -0.36061223
64924.57 15821.565 1.2374995 -0.35544545
64925.38 15821.926 1.239894 -0.35838073
64926.20 15822.288 1.2495873 -0.35397619
64927.02 15822.649 1.2501696 -0.35631024
64927.83 15823.011 1.2601608 -0.35675367
64928.65 15823.372 1.2646999 -0.35381694
64929.47 15823.734 1.2697338 -0.34572221
64930.29 15824.095 1.272252 -0.3379557
64931.10 15824.457 1.2754863 -0.32973313
64931.92 15824.818 1.2809469 -0.322533
64932.74 15825.180 1.2837886 -0.31629065
64933.55 15825.541 1.2833491 -0.30772219
64934.37 15825.902 1.2873566 -0.29868079
64935.19 15826.264 1.2733113 -0.28835635
64936.00 15826.625 1.266251 -0.28863028
64936.82 15826.987 1.2638268 -0.281665
64937.63 15827.348 1.2655781 -0.28013926
64938.45 15827.710 1.2562051 -0.27883405
64939.26 15828.071 1.2481206 -0.2668782
64940.08 15828.433 1.2440873 -0.27194633
64940.90 15828.794 1.2358325 -0.2672972
64941.71 15829.156 1.2376122 -0.2672827
64942.53 15829.517 1.2347119 -0.27050135
64943.34 15829.879 1.2247302 -0.26593912
64944.16 15830.240 1.222618 -0.26696
64944.98 15830.602 1.2206383 -0.27145703
64945.80 15830.963 1.2150923 -0.27438125
64946.61 15831.325 1.2168006 -0.27396547
64947.43 15831.686 1.2083225 -0.27512732
64948.25 15832.048 1.2134232 -0.27173226
64949.06 15832.409 1.2087049 -0.27387566
64949.88 15832.771 1.2026537 -0.27554933
64950.70 15833.132 1.2061116 -0.28018104
64951.51 15833.494 1.2011286 -0.28009603
64952.33 15833.855 1.2046663 -0.28150373
64953.15 15834.217 1.2058762 -0.28534114
64953.96 15834.578 1.2037763 -0.2853381
64954.78 15834.940 1.19878 -0.27891042
64955.59 15835.301 1.1995457 -0.28250182
64956.41 15835.663 1.2016183 -0.28445629
64957.22 15836.024 1.1990736 -0.28483436
64958.04 15836.386 1.2014103 -0.28499409
64958.86 15836.747 1.2024348 -0.29069056
64959.68 15837.109 1.2011104 -0.28888363
64960.49 15837.470 1.1991726 -0.2906838
64961.30 15837.832 1.1985288 -0.29227513
64962.12 15838.193 1.1934387 -0.287002
64962.93 15838.555 1.1932154 -0.28983456
64963.75 15838.916 1.1979427 -0.28781596
64964.57 15839.278 1.1962219 -0.29371142
64965.38 15839.639 1.1969893 -0.29115364
64966.20 15840.001 1.1925522 -0.29260676
64967.01 15840.362 1.1932511 -0.29668348
64967.83 15840.724 1.1954992 -0.29333444
64968.64 15841.085 1.198723 -0.29227485
64969.45 15841.447 1.190636 -0.29404899
64970.27 15841.808 1.1951084 -0.29401045
64971.09 15842.170 1.1944342 -0.29325713
64971.90 15842.531 1.1949228 -0.29351611
64972.72 15842.893 1.1956381 -0.29824611
64973.53 15843.254 1.1942255 -0.29722196
64974.34 15843.616 1.1907691 -0.29712845
64975.16 15843.977 1.1933425 -0.29924561
64975.98 15844.339 1.1994044 -0.29960881
64976.79 15844.700 1.1956182 -0.29224691
64977.61 15845.062 1.1910136 -0.29962123
64978.42 15845.423 1.1895127 -0.29217443
64979.24 15845.785 1.19386 -0.29791403
64980.05 15846.146 1.1938024 -0.2964747
64980.87 15846.508 1.190996 -0.29025531
64981.69 15846.869 1.1875416 -0.29475299
