# Sweep from 15841.238Hz to 15799.708Hz step -0.34608333333332364Hz delay 0.8s
# Excitation 0.006332Vpp attenuator 0 dB
# time(s), freq(Hz), absorption(nA), dispersion(nA)
85341.14 15841.238 7.1486056 -0.32285519
85341.96 15840.892 7.1512563 -0.32140559
85342.77 15840.546 7.1545746 -0.31571372
85343.59 15840.200 7.1486738 -0.3126907
85344.41 15839.854 7.156541 -0.30617812
85345.23 15839.508 7.1554196 -0.30977242
85346.05 15839.162 7.1582567 -0.3040538
85346.87 15838.815 7.1588588 -0.29766667
85347.68 15838.469 7.1618065 -0.29989226
85348.49 15838.123 7.1644208 -0.29593886
85349.31 15837.777 7.1646546 -0.28794148
85350.13 15837.431 7.1681675 -0.28563366
85350.95 15837.085 7.1744189 -0.28534518
85351.76 15836.739 7.1666677 -0.27972234
85352.58 15836.393 7.1688687 -0.2744915
85353.40 15836.047 7.1775307 -0.26992544
85354.21 15835.701 7.1793615 -0.26481578
85355.03 15835.355 7.1789941 -0.26004292
85355.85 15835.008 7.1803465 -0.25390372
85356.66 15834.662 7.181116 -0.2552741
85357.48 15834.316 7.1918334 -0.2476832
85358.30 15833.970 7.1926465 -0.2460728
85359.11 15833.624 7.1983886 -0.23673982
85359.93 15833.278 7.2042517 -0.2323565
85360.75 15832.932 7.208997 -0.22074775
85361.57 15832.586 7.2140388 -0.21639187
85362.38 15832.240 7.2141415 -0.2157479
85363.20 15831.894 7.2283447 -0.21009302
85364.01 15831.548 7.2360895 -0.1993963
85364.83 15831.202 7.2366734 -0.19675812
85365.65 15830.855 7.2405805 -0.19100059
85366.46 15830.509 7.2515641 -0.18052486
85367.27 15830.163 7.2554863 -0.18041996
85368.09 15829.817 7.267548 -0.16993408
85368.91 15829.471 7.2721336 -0.16535496
85369.73 15829.125 7.2846633 -0.15947829
85370.55 15828.779 7.2955436 -0.15477254
85371.36 15828.433 7.2987323 -0.14077447
85372.17 15828.087 7.3139881 -0.13136903
85372.99 15827.741 7.3234123 -0.12627501
85373.81 15827.395 7.3330602 -0.12577739
85374.63 15827.049 7.3375313 -0.11779325
85375.44 15826.702 7.3537785 -0.11184099
85376.26 15826.356 7.3561437 -0.10434121
85377.08 15826.010 7.3706947 -0.10188265
85377.89 15825.664 7.3788387 -0.094250922
85378.71 15825.318 7.3945007 -0.092743697
85379.53 15824.972 7.4032387 -0.094833631
85380.34 15824.626 7.4187569 -0.086381817
85381.16 15824.280 7.4232053 -0.077607787
85381.97 15823.934 7.4421141 -0.083096509
85382.79 15823.588 7.453033 -0.077059489
85383.61 15823.242 7.4606901 -0.08287688
85384.43 15822.896 7.4724926 -0.077993583
85385.24 15822.549 7.4872155 -0.078150279
85386.06 15822.203 7.5022094 -0.091022393
85386.87 15821.857 7.5077955 -0.10036522
85387.69 15821.511 7.5306921 -0.10808565
85388.51 15821.165 7.5428343 -0.1204251
85389.32 15820.819 7.5512185 -0.13074309
85390.14 15820.473 7.5696184 -0.14296958
85390.96 15820.127 7.5902758 -0.16796722
85391.77 15819.781 7.5969201 -0.1893665
85392.59 15819.435 7.6126944 -0.21079587
85393.41 15819.089 7.6275624 -0.23476063
85394.22 15818.743 7.6381193 -0.26550453
85395.04 15818.397 7.6483566 -0.28743133
85395.85 15818.050 7.6547531 -0.32141043
85396.67 15817.704 7.6636543 -0.36251913
85397.49 15817.358 7.6740416 -0.39703622
85398.30 15817.012 7.6751003 -0.45350166
85399.12 15816.666 7.6707229 -0.49126817
85399.93 15816.320 7.6607848 -0.57856869
85400.75 15815.974 7.6130277 -0.68682886
85401.56 15815.628 7.1880017 -0.64554581
85402.38 15815.282 7.1828745 -0.63950205
85403.19 15814.936 7.1781469 -0.63263695
85404.01 15814.590 7.1732607 -0.62577703
85404.83 15814.244 7.1692784 -0.6228712
85405.64 15813.897 7.1659183 -0.61425135
85406.46 15813.551 7.169298 -0.61470251
85407.28 15813.205 7.1647405 -0.61408417
85408.10 15812.859 7.159596 -0.59953516
85408.91 15812.513 7.1587815 -0.60374066
85409.73 15812.167 7.1638092 -0.59266051
85410.55 15811.821 7.1563632 -0.59218451
85411.36 15811.475 7.1526965 -0.59101916
85412.18 15811.129 7.1516533 -0.59043822
85413.00 15810.783 7.1532231 -0.58401656
85413.81 15810.437 7.1510776 -0.58205956
85414.63 15810.091 7.148315 -0.57996465
85415.45 15809.744 7.1509053 -0.57249554
85416.26 15809.398 7.1473773 -0.56961625
85417.08 15809.052 7.1476511 -0.57487176
85417.90 15808.706 7.1458589 -0.57544241
85418.71 15808.360 7.1474506 -0.56940223
85419.52 15808.014 7.1455597 -0.57088357
85420.34 15807.668 7.1387708 -0.55826354
85421.16 15807.322 7.1418335 -0.56400791
85421.97 15806.976 7.141507 -0.55714816
85422.79 15806.630 7.1396557 -0.55564811
85423.61 15806.284 7.1409095 -0.55663884
85424.43 15805.938 7.1382642 -0.55176065
85425.25 15805.591 7.1376171 -0.55198637
85426.06 15805.245 7.1337327 -0.54888619
85426.88 15804.899 7.1416152 -0.5485187
85427.69 15804.553 7.1276754 -0.54971713
85428.51 15804.207 7.1350669 -0.54511258
85429.33 15803.861 7.1345662 -0.54274312
85430.15 15803.515 7.1269369 -0.54902637
85430.96 15803.169 7.135709 -0.54398214
85431.78 15802.823 7.1336804 -0.54082597
85432.59 15802.477 7.129549 -0.54594966
85433.41 15802.131 7.1315003 -0.53600201
85434.23 15801.784 7.132664 -0.53569516
85435.04 15801.438 7.1364698 -0.53911197
85435.86 15801.092 7.1364325 -0.53801477
85436.68 15800.746 7.1315794 -0.53538821
85437.49 15800.400 7.1321156 -0.53600348
85438.31 15800.054 7.1325094 -0.53665309
85439.12 15799.708 7.1316317 -0.53711699
