# Sweep from 15806.555Hz to 15842.890Hz step 0.3027916666666594Hz delay 0.8s
# Excitation 0.002810Vpp attenuator 0 dB
# time(s), freq(Hz), absorption(nA), dispersion(nA)
76346.33 15806.555 3.1334839 -0.40593551
76347.15 15806.858 3.133247 -0.40859095
76347.96 15807.161 3.1329516 -0.4109485
76348.77 15807.463 3.1324009 -0.41155926
76349.59 15807.766 3.1361728 -0.41377908
76350.40 15808.069 3.1347151 -0.40575745
76351.22 15808.372 3.1335358 -0.41143028
76352.03 15808.675 3.1301822 -0.40731885
76352.84 15808.977 3.1346585 -0.41144509
76353.66 15809.280 3.1287036 -0.41068802
76354.48 15809.583 3.1324255 -0.41559241
76355.29 15809.886 3.1342133 -0.41295769
76356.11 15810.189 3.1355403 -0.41651893
76356.92 15810.491 3.1384882 -0.41551692
76357.73 15810.794 3.1331774 -0.41509293
76358.55 15811.097 3.1407862 -0.4131569
76359.36 15811.400 3.1388456 -0.42004072
76360.18 15811.702 3.1393106 -0.42156023
76360.99 15812.005 3.1426462 -0.4211652
76361.81 15812.308 3.1465722 -0.42934744
76362.63 15812.611 3.1421325 -0.41998982
76363.44 15812.914 3.1405475 -0.42073242
76364.26 15813.216 3.1421657 -0.42394981
76365.07 15813.519 3.1431025 -0.42807949
76365.88 15813.822 3.1458953 -0.4291646
76366.70 15814.125 3.1445741 -0.43897464
76367.51 15814.428 3.1465156 -0.42893234
76368.33 15814.730 3.1493369 -0.42451154
76369.15 15815.033 3.144889 -0.43736429
76369.97 15815.336 3.1557886 -0.43573485
76370.78 15815.639 3.1539573 -0.43779178
76371.60 15815.942 3.1532484 -0.43657863
76372.42 15816.244 3.1556308 -0.44255037
76373.23 15816.547 3.1544762 -0.44601703
76374.05 15816.850 3.1638604 -0.44372086
76374.86 15817.153 3.1625509 -0.44951997
76375.68 15817.456 3.1604577 -0.45369904
76376.49 15817.758 3.166029 -0.45609505
76377.31 15818.061 3.17427 -0.45862072
76378.12 15818.364 3.1683735 -0.46282
76378.94 15818.667 3.1750703 -0.46603665
76379.75 15818.969 3.1777806 -0.46498351
76380.57 15819.272 3.1836848 -0.4684639
76381.38 15819.575 3.1882266 -0.47364256
76382.20 15819.878 3.1932486 -0.47313983
76383.02 15820.181 3.1999966 -0.4776233
76383.84 15820.483 3.2080427 -0.48217379
76384.65 15820.786 3.2188013 -0.48148007
76385.47 15821.089 3.2259702 -0.49112151
76386.29 15821.392 3.236562 -0.49245426
76387.10 15821.695 3.2482678 -0.50032531
76387.92 15821.997 3.271871 -0.49166948
76388.73 15822.300 3.2933767 -0.48508082
76389.55 15822.603 3.3226634 -0.49089317
76390.36 15822.906 3.3476363 -0.47169206
76391.18 15823.209 3.382045 -0.44929516
76391.99 15823.511 3.4070733 -0.4215259
76392.81 15823.814 3.4135076 -0.38483634
76393.62 15824.117 3.418028 -0.35308551
76394.44 15824.420 3.4170384 -0.32140474
76395.25 15824.722 3.4119978 -0.30610036
76396.07 15825.025 3.4020375 -0.28870215
76396.89 15825.328 3.3892698 -0.2729644
76397.70 15825.631 3.3736028 -0.26251894
76398.52 15825.934 3.3627007 -0.25501609
76399.33 15826.236 3.34527 -0.24186846
76400.15 15826.539 3.3344811 -0.23290275
76400.96 15826.842 3.326541 -0.22496748
76401.78 15827.145 3.3138397 -0.2277195
76402.59 15827.448 3.291276 -0.2178564
76403.41 15827.750 3.2809537 -0.21828727
76404.23 15828.053 3.2678581 -0.21970843
76405.05 15828.356 3.2629832 -0.21261842
76405.86 15828.659 3.2472622 -0.22000771
76406.67 15828.962 3.240265 -0.22492335
76407.49 15829.264 3.2367891 -0.22770547
76408.31 15829.567 3.2282273 -0.22567261
76409.13 15829.870 3.2197281 -0.22893201
76409.94 15830.173 3.2130333 -0.23815079
76410.76 15830.476 3.2042883 -0.23409569
76411.58 15830.778 3.1993914 -0.23761648
76412.39 15831.081 3.1964673 -0.23923286
76413.21 15831.384 3.1866382 -0.24295537
76414.02 15831.687 3.1818795 -0.25064389
76414.84 15831.989 3.187432 -0.2525945
76415.66 15832.292 3.1757431 -0.25110518
76416.47 15832.595 3.174591 -0.25496814
76417.28 15832.898 3.1764298 -0.26178964
76418.10 15833.201 3.1720795 -0.2604032
76418.92 15833.503 3.1633517 -0.25889383
76419.73 15833.806 3.1649768 -0.2619914
76420.55 15834.109 3.1554448 -0.26761836
76421.37 15834.412 3.1594477 -0.26880738
76422.18 15834.715 3.1547736 -0.26979498
76423.00 15835.017 3.1583788 -0.2750707
76423.82 15835.320 3.153976 -0.2768779
76424.63 15835.623 3.1491893 -0.27807758
76425.45 15835.926 3.1495879 -0.27562066
76426.27 15836.229 3.1493055 -0.2795642
76427.08 15836.531 3.1443822 -0.28305752
76427.90 15836.834 3.147203 -0.28198789
76428.71 15837.137 3.1489681 -0.28446516
76429.53 15837.440 3.1409975 -0.29101977
76430.34 15837.743 3.1446664 -0.28796376
76431.16 15838.045 3.1389395 -0.28857721
76431.98 15838.348 3.1427282 -0.28951081
76432.79 15838.651 3.1359091 -0.29086985
76433.61 15838.954 3.1433055 -0.29237441
76434.43 15839.256 3.1442059 -0.29246794
76435.25 15839.559 3.1413574 -0.29704074
76436.06 15839.862 3.1387701 -0.28924572
76436.88 15840.165 3.1376544 -0.29747403
76437.69 15840.468 3.1383809 -0.30301911
76438.51 15840.770 3.1370528 -0.29897197
76439.33 15841.073 3.1349125 -0.29947395
76440.14 15841.376 3.1369723 -0.30665765
76440.95 15841.679 3.1386419 -0.30407472
76441.77 15841.982 3.1332738 -0.30094844
76442.59 15842.284 3.1351196 -0.30787254
76443.41 15842.587 3.1301654 -0.30231266
76444.22 15842.890 3.1324096 -0.30888847
