# Sweep from 15814.163Hz to 15839.541Hz step 0.21148333333332328Hz delay 0.9s
# Excitation 0.000526Vpp attenuator 0 dB
# time(s), freq(Hz), absorption(nA), dispersion(nA)
5284.41 15814.163 0.58270012 -0.30956144
5285.32 15814.374 0.58983608 -0.31690541
5286.23 15814.586 0.58879601 -0.31513235
5287.15 15814.797 0.58670315 -0.31391463
5288.06 15815.009 0.58194837 -0.31646144
5288.98 15815.220 0.58849082 -0.3108419
5289.90 15815.432 0.58621004 -0.30940191
5290.81 15815.643 0.58790999 -0.31377598
5291.73 15815.855 0.58821985 -0.3166561
5292.64 15816.066 0.58599943 -0.3158722
5293.56 15816.278 0.58786344 -0.31359892
5294.48 15816.489 0.59025228 -0.31897233
5295.39 15816.701 0.5908957 -0.31597256
5296.31 15816.912 0.5860586 -0.31346502
5297.23 15817.124 0.58954265 -0.31331689
5298.14 15817.335 0.5878851 -0.3215861
5299.06 15817.547 0.58463183 -0.3203609
5299.97 15817.758 0.58397302 -0.32053043
5300.89 15817.970 0.58584442 -0.31801414
5301.80 15818.181 0.5867621 -0.31651496
5302.72 15818.393 0.5900763 -0.31545679
5303.64 15818.604 0.59100893 -0.31825661
5304.55 15818.816 0.58702534 -0.32025343
5305.47 15819.027 0.59516395 -0.31808079
5306.38 15819.239 0.58701255 -0.32288628
5307.30 15819.450 0.58904021 -0.32133477
5308.22 15819.662 0.59271974 -0.32484218
5309.13 15819.873 0.58607804 -0.32131345
5310.05 15820.085 0.5916786 -0.32889207
5310.97 15820.296 0.59282422 -0.31876309
5311.89 15820.507 0.59307627 -0.32290691
5312.80 15820.719 0.59340113 -0.32521984
5313.72 15820.930 0.58930317 -0.32626107
5314.63 15821.142 0.59787152 -0.32727533
5315.55 15821.353 0.60187682 -0.32678375
5316.46 15821.565 0.60206224 -0.32397543
5317.38 15821.776 0.59314073 -0.32862283
5318.29 15821.988 0.60218969 -0.32893902
5319.21 15822.199 0.59941681 -0.32553692
5320.12 15822.411 0.60065082 -0.33752937
5321.04 15822.622 0.60229689 -0.32716918
5321.95 15822.834 0.60607636 -0.32758854
5322.87 15823.045 0.60573632 -0.32817354
5323.78 15823.257 0.60445279 -0.33382301
5324.70 15823.468 0.6080673 -0.3351399
5325.62 15823.680 0.6113932 -0.33898965
5326.54 15823.891 0.61299357 -0.33089117
5327.45 15824.103 0.61640492 -0.33268574
5328.37 15824.314 0.61625639 -0.33833007
5329.29 15824.526 0.62081818 -0.3345871
5330.20 15824.737 0.62658256 -0.33653899
5331.12 15824.949 0.62748637 -0.33822332
5332.04 15825.160 0.6326274 -0.32652892
5332.95 15825.372 0.63644552 -0.33250254
5333.87 15825.583 0.64077489 -0.3322796
5334.78 15825.795 0.65028973 -0.32394084
5335.70 15826.006 0.65575142 -0.32652878
5336.61 15826.218 0.65405982 -0.32522587
5337.53 15826.429 0.65900144 -0.31942301
5338.45 15826.641 0.66059653 -0.30347221
5339.36 15826.852 0.6634275 -0.30136391
5340.28 15827.063 0.66016241 -0.29007091
5341.20 15827.275 0.65782388 -0.28502106
5342.11 15827.486 0.6574607 -0.28060364
5343.03 15827.698 0.65505668 -0.27166072
5343.95 15827.909 0.64547493 -0.27170475
5344.86 15828.121 0.64483805 -0.26475553
5345.77 15828.332 0.63614851 -0.26457869
5346.69 15828.544 0.63425671 -0.26283183
5347.60 15828.755 0.62821931 -0.25729537
5348.52 15828.967 0.62286432 -0.26115359
5349.44 15829.178 0.62547741 -0.25870031
5350.35 15829.390 0.6140869 -0.26221997
5351.27 15829.601 0.61359094 -0.25969257
5352.19 15829.813 0.60543852 -0.26430359
5353.10 15830.024 0.60506045 -0.25989678
5354.01 15830.236 0.6066968 -0.26702429
5354.93 15830.447 0.60206742 -0.26345188
5355.85 15830.659 0.6036903 -0.27056529
5356.76 15830.870 0.59703115 -0.27040974
5357.68 15831.082 0.59604855 -0.27239241
5358.60 15831.293 0.5942527 -0.26841704
5359.52 15831.505 0.59740302 -0.26785892
5360.43 15831.716 0.59492254 -0.2759237
5361.35 15831.928 0.59713255 -0.27298961
5362.27 15832.139 0.58902884 -0.27304884
5363.19 15832.351 0.59481607 -0.27667707
5364.11 15832.562 0.59776511 -0.27779572
5365.03 15832.774 0.59489594 -0.2760697
5365.94 15832.985 0.5932302 -0.27359624
5366.86 15833.197 0.58997153 -0.27957969
5367.77 15833.408 0.59341801 -0.27000434
5368.69 15833.619 0.59293905 -0.28094425
5369.60 15833.831 0.59255353 -0.27745159
5370.52 15834.042 0.58605383 -0.2846852
5371.44 15834.254 0.59172277 -0.2735535
5372.35 15834.465 0.58794666 -0.27598341
5373.27 15834.677 0.58515235 -0.27902951
5374.18 15834.888 0.58552985 -0.28173059
5375.10 15835.100 0.58060704 -0.28452101
5376.02 15835.311 0.59059852 -0.28458362
5376.93 15835.523 0.58328749 -0.28306908
5377.85 15835.734 0.58542435 -0.27705497
5378.76 15835.946 0.58490514 -0.28058085
5379.68 15836.157 0.58923945 -0.27839707
5380.59 15836.369 0.58744865 -0.28465431
5381.51 15836.580 0.58425786 -0.27943645
5382.42 15836.792 0.58827356 -0.27886486
5383.34 15837.003 0.58892959 -0.28094485
5384.25 15837.215 0.58803738 -0.28412862
5385.17 15837.426 0.58172611 -0.28979665
5386.08 15837.638 0.58318227 -0.28738555
5387.00 15837.849 0.5839637 -0.28687282
5387.92 15838.061 0.58703586 -0.28563136
5388.84 15838.272 0.58461848 -0.28534433
5389.75 15838.484 0.58454219 -0.28492082
5390.67 15838.695 0.583695 -0.28831835
5391.58 15838.907 0.58350264 -0.28832849
5392.50 15839.118 0.5848762 -0.28410489
5393.42 15839.330 0.58476161 -0.28746078
5394.33 15839.541 0.58362923 -0.28314997
