# Sweep from 15803.299Hz to 15847.416Hz step 0.3676416666666531Hz delay 0.9s
# Excitation 0.001207Vpp attenuator 0 dB
# time(s), freq(Hz), absorption(nA), dispersion(nA)
39439.17 15803.299 1.3403794 -0.33333106
39440.08 15803.667 1.3403362 -0.33087326
39441.00 15804.034 1.3416176 -0.33353706
39441.92 15804.402 1.335653 -0.3377848
39442.84 15804.770 1.347052 -0.33948794
39443.75 15805.137 1.346378 -0.33947154
39444.67 15805.505 1.3510593 -0.33544433
39445.59 15805.872 1.346748 -0.33702071
39446.50 15806.240 1.3491549 -0.33239655
39447.42 15806.608 1.3404205 -0.3401407
39448.34 15806.975 1.3444123 -0.33861141
39449.25 15807.343 1.3443436 -0.33839021
39450.17 15807.711 1.3496257 -0.34065391
39451.09 15808.078 1.3480175 -0.34139697
39452.00 15808.446 1.3438263 -0.34512513
39452.91 15808.814 1.3444579 -0.34253713
39453.83 15809.181 1.3508457 -0.33702133
39454.74 15809.549 1.3429436 -0.34321505
39455.66 15809.917 1.3513264 -0.33562912
39456.58 15810.284 1.3504668 -0.34472097
39457.49 15810.652 1.3430138 -0.34081467
39458.41 15811.019 1.342073 -0.3470274
39459.32 15811.387 1.3533108 -0.34162005
39460.24 15811.755 1.3508792 -0.34006794
39461.16 15812.122 1.3498484 -0.34673255
39462.07 15812.490 1.3466495 -0.33950022
39462.99 15812.858 1.350382 -0.3460712
39463.91 15813.225 1.3536182 -0.34257116
39464.83 15813.593 1.3519749 -0.34879747
39465.74 15813.961 1.3558051 -0.34326425
39466.66 15814.328 1.3567726 -0.3504108
39467.57 15814.696 1.3522006 -0.34957202
39468.49 15815.064 1.3541867 -0.34987596
39469.41 15815.431 1.3536414 -0.35406475
39470.33 15815.799 1.3580781 -0.35236411
39471.24 15816.166 1.3499877 -0.35130591
39472.16 15816.534 1.3590377 -0.35412972
39473.07 15816.902 1.3545825 -0.35658249
39473.99 15817.269 1.3636075 -0.36027714
39474.91 15817.637 1.364074 -0.35810268
39475.83 15818.005 1.3637615 -0.35759837
39476.74 15818.372 1.3702588 -0.36263191
39477.66 15818.740 1.3666969 -0.35930364
39478.58 15819.108 1.374555 -0.3598162
39479.49 15819.475 1.3750677 -0.36287997
39480.41 15819.843 1.3743402 -0.3621677
39481.32 15820.211 1.3804002 -0.36613579
39482.24 15820.578 1.3853086 -0.36597802
39483.16 15820.946 1.3876387 -0.36898967
39484.07 15821.313 1.3910457 -0.36596612
39484.99 15821.681 1.3944141 -0.37160009
39485.91 15822.049 1.4027285 -0.3691249
39486.82 15822.416 1.4073418 -0.37013757
39487.74 15822.784 1.4126747 -0.36217418
39488.66 15823.152 1.416466 -0.35699051
39489.57 15823.519 1.4273078 -0.36102233
39490.49 15823.887 1.4307384 -0.35401618
39491.40 15824.255 1.436548 -0.34696174
39492.32 15824.622 1.4387796 -0.33463732
39493.24 15824.990 1.4451484 -0.32361197
39494.16 15825.358 1.445893 -0.3136104
39495.07 15825.725 1.438507 -0.30320447
39495.99 15826.093 1.4419104 -0.30231749
39496.90 15826.460 1.4363791 -0.28590202
39497.82 15826.828 1.4294391 -0.28229036
39498.73 15827.196 1.4269712 -0.27320638
39499.65 15827.563 1.415683 -0.27191237
39500.56 15827.931 1.4050001 -0.270117
39501.48 15828.299 1.4079103 -0.26551567
39502.39 15828.666 1.4004238 -0.26553639
39503.31 15829.034 1.3928986 -0.26728574
39504.22 15829.402 1.3832921 -0.25955038
39505.14 15829.769 1.3813335 -0.26535858
39506.06 15830.137 1.3792508 -0.26598207
39506.97 15830.504 1.373993 -0.27119393
39507.89 15830.872 1.3800689 -0.26561875
39508.80 15831.240 1.3680161 -0.26941694
39509.71 15831.607 1.3623365 -0.26699522
39510.63 15831.975 1.3670148 -0.27413398
39511.54 15832.343 1.3661946 -0.27620078
39512.46 15832.710 1.3640913 -0.28035774
39513.38 15833.078 1.364852 -0.27466243
39514.30 15833.446 1.3608859 -0.28110463
39515.21 15833.813 1.3603049 -0.28060865
39516.13 15834.181 1.3601309 -0.27860455
39517.05 15834.549 1.3588915 -0.28409858
39517.96 15834.916 1.3611126 -0.28096699
39518.88 15835.284 1.3522014 -0.28531338
39519.80 15835.651 1.3532576 -0.28134366
39520.71 15836.019 1.349548 -0.27912174
39521.63 15836.387 1.35153 -0.28190254
39522.54 15836.754 1.3504094 -0.28179375
39523.46 15837.122 1.3498086 -0.28423625
39524.38 15837.490 1.3556307 -0.2884982
39525.30 15837.857 1.3528481 -0.28539614
39526.22 15838.225 1.3493984 -0.2929076
39527.13 15838.593 1.3554652 -0.29011588
39528.05 15838.960 1.3457955 -0.28871619
39528.97 15839.328 1.353702 -0.29427341
39529.88 15839.696 1.3455433 -0.2916029
39530.80 15840.063 1.3466398 -0.29062846
39531.72 15840.431 1.3465926 -0.29013304
39532.63 15840.798 1.3408675 -0.29311937
39533.55 15841.166 1.3431503 -0.291432
39534.46 15841.534 1.3469951 -0.28991479
39535.38 15841.901 1.347186 -0.29348638
39536.30 15842.269 1.3449383 -0.29905721
39537.21 15842.637 1.3481019 -0.29236486
39538.13 15843.004 1.3420291 -0.29233732
39539.05 15843.372 1.3421801 -0.29192702
39539.97 15843.740 1.3476749 -0.29937479
39540.88 15844.107 1.3407965 -0.29884433
39541.80 15844.475 1.3421046 -0.29524909
39542.71 15844.843 1.3429811 -0.29825679
39543.63 15845.210 1.3491825 -0.29992012
39544.54 15845.578 1.3423028 -0.30047283
39545.46 15845.945 1.3450318 -0.29219447
39546.37 15846.313 1.3456752 -0.29545541
39547.29 15846.681 1.3428063 -0.29858148
39548.21 15847.048 1.3446372 -0.29826643
39549.12 15847.416 1.3486238 -0.29928054
